TITLE	FittingExample
DATA	TYPE	
ORIGIN	JASCO
OWNER	
DATE	23/06/07
TIME	13:08:04
SPECTROMETER/DATA SYSTEM	JASCO Corp., V-550, Rev. 1.00
RESOLUTION	
DELTAX	-1
XUNITS	NANOMETERS
YUNITS	ABSORBANCE
FIRSTX	900.0000
LASTX	190.0000
NPOINTS	711
FIRSTY	0.08027
MAXY	3.79174
MINY	0.05499
XYDATA
900.0000	0.08027
899.0000	0.08132
898.0000	0.08115
897.0000	0.07999
896.0000	0.0785
895.0000	0.07676
894.0000	0.07702
893.0000	0.07685
892.0000	0.07641
891.0000	0.07546
890.0000	0.07495
889.0000	0.07506
888.0000	0.074
887.0000	0.07391
886.0000	0.07333
885.0000	0.07322
884.0000	0.07271
883.0000	0.07213
882.0000	0.07249
881.0000	0.07208
880.0000	0.07125
879.0000	0.07145
878.0000	0.07106
877.0000	0.07066
876.0000	0.07073
875.0000	0.07075
874.0000	0.07024
873.0000	0.07015
872.0000	0.07031
871.0000	0.07042
870.0000	0.07051
869.0000	0.07066
868.0000	0.07084
867.0000	0.07061
866.0000	0.07039
865.0000	0.07042
864.0000	0.07032
863.0000	0.0706
862.0000	0.07096
861.0000	0.07132
860.0000	0.07138
859.0000	0.07145
858.0000	0.07182
857.0000	0.07201
856.0000	0.07222
855.0000	0.07257
854.0000	0.07287
853.0000	0.07322
852.0000	0.07391
851.0000	0.07447
850.0000	0.07477
849.0000	0.0752
848.0000	0.0756
847.0000	0.0763
846.0000	0.07701
845.0000	0.07763
844.0000	0.07838
843.0000	0.07915
842.0000	0.07984
841.0000	0.08083
840.0000	0.08184
839.0000	0.08278
838.0000	0.0838
837.0000	0.0849
836.0000	0.08611
835.0000	0.08733
834.0000	0.08874
833.0000	0.09022
832.0000	0.0917
831.0000	0.09336
830.0000	0.09512
829.0000	0.09702
828.0000	0.09901
827.0000	0.10094
826.0000	0.10314
825.0000	0.10543
824.0000	0.10793
823.0000	0.1104
822.0000	0.11321
821.0000	0.1162
820.0000	0.11925
819.0000	0.12255
818.0000	0.12597
817.0000	0.12972
816.0000	0.13355
815.0000	0.13733
814.0000	0.14154
813.0000	0.14594
812.0000	0.1504
811.0000	0.15546
810.0000	0.16074
809.0000	0.16607
808.0000	0.17172
807.0000	0.17782
806.0000	0.1839
805.0000	0.19027
804.0000	0.19703
803.0000	0.20409
802.0000	0.21157
801.0000	0.21926
800.0000	0.22732
799.0000	0.23576
798.0000	0.24432
797.0000	0.25332
796.0000	0.26272
795.0000	0.27252
794.0000	0.28253
793.0000	0.29285
792.0000	0.30339
791.0000	0.31423
790.0000	0.32565
789.0000	0.33734
788.0000	0.34922
787.0000	0.36151
786.0000	0.37388
785.0000	0.38629
784.0000	0.39898
783.0000	0.41236
782.0000	0.42604
781.0000	0.43974
780.0000	0.45358
779.0000	0.46763
778.0000	0.48153
777.0000	0.49552
776.0000	0.5095
775.0000	0.52365
774.0000	0.53734
773.0000	0.55106
772.0000	0.56475
771.0000	0.57844
770.0000	0.59193
769.0000	0.605
768.0000	0.61777
767.0000	0.63028
766.0000	0.64225
765.0000	0.65368
764.0000	0.66456
763.0000	0.67517
762.0000	0.68536
761.0000	0.69482
760.0000	0.70369
759.0000	0.71212
758.0000	0.7199
757.0000	0.72696
756.0000	0.73323
755.0000	0.73882
754.0000	0.74364
753.0000	0.74786
752.0000	0.75127
751.0000	0.75409
750.0000	0.756
749.0000	0.7571
748.0000	0.7574
747.0000	0.757
746.0000	0.75588
745.0000	0.75405
744.0000	0.75155
743.0000	0.74805
742.0000	0.74399
741.0000	0.73943
740.0000	0.7322
739.0000	0.72361
738.0000	0.71704
737.0000	0.70977
736.0000	0.70189
735.0000	0.6933
734.0000	0.68431
733.0000	0.67481
732.0000	0.6648
731.0000	0.65455
730.0000	0.64388
729.0000	0.63271
728.0000	0.62145
727.0000	0.61011
726.0000	0.59832
725.0000	0.58635
724.0000	0.57425
723.0000	0.56209
722.0000	0.54968
721.0000	0.53736
720.0000	0.5251
719.0000	0.5129
718.0000	0.50071
717.0000	0.48872
716.0000	0.47694
715.0000	0.46528
714.0000	0.45364
713.0000	0.44239
712.0000	0.43128
711.0000	0.42032
710.0000	0.4096
709.0000	0.39915
708.0000	0.38908
707.0000	0.37919
706.0000	0.36968
705.0000	0.36053
704.0000	0.35171
703.0000	0.34293
702.0000	0.33451
701.0000	0.32643
700.0000	0.3186
699.0000	0.31105
698.0000	0.30396
697.0000	0.29702
696.0000	0.29036
695.0000	0.28397
694.0000	0.27794
693.0000	0.27213
692.0000	0.26661
691.0000	0.26133
690.0000	0.25622
689.0000	0.25137
688.0000	0.24669
687.0000	0.24217
686.0000	0.23786
685.0000	0.23376
684.0000	0.22978
683.0000	0.22589
682.0000	0.22225
681.0000	0.21878
680.0000	0.21537
679.0000	0.21212
678.0000	0.20901
677.0000	0.20601
676.0000	0.20315
675.0000	0.20032
674.0000	0.19756
673.0000	0.19489
672.0000	0.19226
671.0000	0.18966
670.0000	0.18713
669.0000	0.18468
668.0000	0.1822
667.0000	0.17987
666.0000	0.17747
665.0000	0.17505
664.0000	0.17275
663.0000	0.17048
662.0000	0.16821
661.0000	0.16593
660.0000	0.16368
659.0000	0.1615
658.0000	0.1593
657.0000	0.15719
656.0000	0.15507
655.0000	0.15307
654.0000	0.15104
653.0000	0.14912
652.0000	0.1472
651.0000	0.14532
650.0000	0.14351
649.0000	0.1417
648.0000	0.14002
647.0000	0.13846
646.0000	0.13694
645.0000	0.13545
644.0000	0.1341
643.0000	0.13287
642.0000	0.13159
641.0000	0.13043
640.0000	0.12944
639.0000	0.12853
638.0000	0.12768
637.0000	0.1269
636.0000	0.12622
635.0000	0.1257
634.0000	0.12526
633.0000	0.12484
632.0000	0.12451
631.0000	0.12433
630.0000	0.12421
629.0000	0.12415
628.0000	0.12418
627.0000	0.12427
626.0000	0.12444
625.0000	0.12465
624.0000	0.125
623.0000	0.12534
622.0000	0.12575
621.0000	0.12619
620.0000	0.12666
619.0000	0.12726
618.0000	0.12784
617.0000	0.12842
616.0000	0.12906
615.0000	0.12972
614.0000	0.13039
613.0000	0.13114
612.0000	0.13186
611.0000	0.1326
610.0000	0.13337
609.0000	0.13416
608.0000	0.13497
607.0000	0.13581
606.0000	0.13666
605.0000	0.13747
604.0000	0.13833
603.0000	0.13925
602.0000	0.14011
601.0000	0.141
600.0000	0.14193
599.0000	0.14297
598.0000	0.14382
597.0000	0.14473
596.0000	0.14574
595.0000	0.14671
594.0000	0.1475
593.0000	0.14836
592.0000	0.14923
591.0000	0.15007
590.0000	0.15086
589.0000	0.15158
588.0000	0.15231
587.0000	0.15298
586.0000	0.15356
585.0000	0.15406
584.0000	0.15448
583.0000	0.15489
582.0000	0.15521
581.0000	0.15549
580.0000	0.15564
579.0000	0.15573
578.0000	0.15572
577.0000	0.15566
576.0000	0.15547
575.0000	0.15519
574.0000	0.15491
573.0000	0.15446
572.0000	0.15399
571.0000	0.15356
570.0000	0.15299
569.0000	0.15234
568.0000	0.15171
567.0000	0.15095
566.0000	0.1502
565.0000	0.14934
564.0000	0.14854
563.0000	0.14766
562.0000	0.14677
561.0000	0.14584
560.0000	0.1449
559.0000	0.14397
558.0000	0.14298
557.0000	0.14197
556.0000	0.14099
555.0000	0.13999
554.0000	0.139
553.0000	0.13802
552.0000	0.137
551.0000	0.13597
550.0000	0.13498
549.0000	0.13395
548.0000	0.13302
547.0000	0.13214
546.0000	0.13126
545.0000	0.13034
544.0000	0.12942
543.0000	0.12855
542.0000	0.12765
541.0000	0.12683
540.0000	0.1261
539.0000	0.1254
538.0000	0.12472
537.0000	0.12397
536.0000	0.12326
535.0000	0.12263
534.0000	0.12193
533.0000	0.12135
532.0000	0.12075
531.0000	0.12014
530.0000	0.11955
529.0000	0.11899
528.0000	0.11848
527.0000	0.11791
526.0000	0.11735
525.0000	0.11678
524.0000	0.1162
523.0000	0.11559
522.0000	0.11507
521.0000	0.11446
520.0000	0.11385
519.0000	0.11314
518.0000	0.11259
517.0000	0.11198
516.0000	0.11133
515.0000	0.11067
514.0000	0.10998
513.0000	0.10927
512.0000	0.10861
511.0000	0.10792
510.0000	0.10716
509.0000	0.10633
508.0000	0.10553
507.0000	0.10471
506.0000	0.1039
505.0000	0.10302
504.0000	0.10218
503.0000	0.10128
502.0000	0.10035
501.0000	0.09942
500.0000	0.09841
499.0000	0.0975
498.0000	0.09652
497.0000	0.09554
496.0000	0.09458
495.0000	0.0936
494.0000	0.09258
493.0000	0.09156
492.0000	0.09052
491.0000	0.0895
490.0000	0.0885
489.0000	0.08749
488.0000	0.08653
487.0000	0.08548
486.0000	0.08448
485.0000	0.08351
484.0000	0.08255
483.0000	0.08155
482.0000	0.08058
481.0000	0.07963
480.0000	0.07869
479.0000	0.07767
478.0000	0.07674
477.0000	0.07584
476.0000	0.07495
475.0000	0.07401
474.0000	0.07311
473.0000	0.07228
472.0000	0.07142
471.0000	0.07062
470.0000	0.06987
469.0000	0.06899
468.0000	0.06817
467.0000	0.06738
466.0000	0.0666
465.0000	0.06587
464.0000	0.0652
463.0000	0.06449
462.0000	0.06371
461.0000	0.06297
460.0000	0.06232
459.0000	0.06169
458.0000	0.06102
457.0000	0.06037
456.0000	0.05979
455.0000	0.05923
454.0000	0.05871
453.0000	0.05817
452.0000	0.05766
451.0000	0.05717
450.0000	0.05668
449.0000	0.05631
448.0000	0.056
447.0000	0.05566
446.0000	0.05543
445.0000	0.05522
444.0000	0.0551
443.0000	0.05499
442.0000	0.05504
441.0000	0.05511
440.0000	0.05524
439.0000	0.05544
438.0000	0.05567
437.0000	0.05597
436.0000	0.05636
435.0000	0.05685
434.0000	0.05737
433.0000	0.05802
432.0000	0.05866
431.0000	0.05934
430.0000	0.06019
429.0000	0.06105
428.0000	0.06193
427.0000	0.06286
426.0000	0.06375
425.0000	0.06469
424.0000	0.0657
423.0000	0.06679
422.0000	0.06784
421.0000	0.06889
420.0000	0.06977
419.0000	0.07091
418.0000	0.07213
417.0000	0.07319
416.0000	0.07431
415.0000	0.07551
414.0000	0.07662
413.0000	0.0778
412.0000	0.07896
411.0000	0.08021
410.0000	0.08157
409.0000	0.08303
408.0000	0.08453
407.0000	0.08623
406.0000	0.08802
405.0000	0.08994
404.0000	0.09218
403.0000	0.09468
402.0000	0.09758
401.0000	0.10106
400.0000	0.1049
399.0000	0.10912
398.0000	0.1141
397.0000	0.12003
396.0000	0.12684
395.0000	0.13478
394.0000	0.1439
393.0000	0.1544
392.0000	0.16628
391.0000	0.17966
390.0000	0.19457
389.0000	0.21077
388.0000	0.22819
387.0000	0.24658
386.0000	0.26545
385.0000	0.28432
384.0000	0.30241
383.0000	0.31944
382.0000	0.33469
381.0000	0.34795
380.0000	0.35898
379.0000	0.3681
378.0000	0.37581
377.0000	0.38243
376.0000	0.38862
375.0000	0.39484
374.0000	0.40144
373.0000	0.40846
372.0000	0.41619
371.0000	0.42466
370.0000	0.43274
369.0000	0.44265
368.0000	0.45253
367.0000	0.46263
366.0000	0.47289
365.0000	0.48362
364.0000	0.49466
363.0000	0.50605
362.0000	0.51781
361.0000	0.53
360.0000	0.54261
359.0000	0.55559
358.0000	0.56875
357.0000	0.58208
356.0000	0.5956
355.0000	0.60929
354.0000	0.62302
353.0000	0.63708
352.0000	0.65141
351.0000	0.6653
350.0000	0.67921
349.0000	0.6928
348.0000	0.70559
347.0000	0.71811
346.0000	0.72991
345.0000	0.74088
344.0000	0.75077
343.0000	0.75991
342.0000	0.76866
341.0000	0.7771
340.0000	0.78511
339.0000	0.79414
338.0000	0.80358
337.0000	0.81474
336.0000	0.82744
335.0000	0.8426
334.0000	0.86052
333.0000	0.88201
332.0000	0.90725
331.0000	0.93671
330.0000	0.97122
329.0000	1.01127
328.0000	1.05741
327.0000	1.11046
326.0000	1.17115
325.0000	1.23989
324.0000	1.31779
323.0000	1.40552
322.0000	1.50452
321.0000	1.61394
320.0000	1.73431
319.0000	1.86652
318.0000	2.00911
317.0000	2.16164
316.0000	2.32269
315.0000	2.48813
314.0000	2.65449
313.0000	2.82382
312.0000	2.98075
311.0000	3.12405
310.0000	3.25238
309.0000	3.36261
308.0000	3.44542
307.0000	3.51295
306.0000	3.5741
305.0000	3.61607
304.0000	3.63924
303.0000	3.66998
302.0000	3.69776
301.0000	3.71575
300.0000	3.72734
299.0000	3.74389
298.0000	3.7513
297.0000	3.77169
296.0000	3.77015
295.0000	3.77188
294.0000	3.78491
293.0000	3.78663
292.0000	3.79174
291.0000	3.78328
290.0000	3.77355
289.0000	3.7768
288.0000	3.75596
287.0000	3.74221
286.0000	3.7187
285.0000	3.69224
284.0000	3.65249
283.0000	3.6116
282.0000	3.54916
281.0000	3.46652
280.0000	3.37394
279.0000	3.2663
278.0000	3.15268
277.0000	3.02966
276.0000	2.8995
275.0000	2.76418
274.0000	2.62662
273.0000	2.49143
272.0000	2.35696
271.0000	2.22588
270.0000	2.10162
269.0000	1.98508
268.0000	1.87745
267.0000	1.78175
266.0000	1.69778
265.0000	1.62788
264.0000	1.57323
263.0000	1.53615
262.0000	1.51988
261.0000	1.52451
260.0000	1.55197
259.0000	1.60041
258.0000	1.66607
257.0000	1.74191
256.0000	1.82143
255.0000	1.89706
254.0000	1.96366
253.0000	2.02244
252.0000	2.07511
251.0000	2.12494
250.0000	2.17576
249.0000	2.23005
248.0000	2.28778
247.0000	2.34788
246.0000	2.4066
245.0000	2.45979
244.0000	2.504
243.0000	2.53706
242.0000	2.56262
241.0000	2.57938
240.0000	2.59096
239.0000	2.60149
238.0000	2.60918
237.0000	2.61768
236.0000	2.62606
235.0000	2.63168
234.0000	2.63951
233.0000	2.6514
232.0000	2.67026
231.0000	2.7019
230.0000	2.75025
229.0000	2.81346
228.0000	2.89046
227.0000	2.97859
226.0000	3.078
225.0000	3.18468
224.0000	3.30706
223.0000	3.4266
222.0000	3.54969
221.0000	3.66412
220.0000	3.74324
219.0000	3.77801
218.0000	3.78839
217.0000	3.77605
216.0000	3.75199
215.0000	3.73051
214.0000	3.69946
213.0000	3.66457
212.0000	3.62985
211.0000	3.58963
210.0000	3.54002
209.0000	3.48283
208.0000	3.42318
207.0000	3.3562
206.0000	3.27506
205.0000	3.18142
204.0000	3.05389
203.0000	2.91217
202.0000	2.74655
201.0000	2.5337
200.0000	2.28669
199.0000	1.98283
198.0000	1.66114
197.0000	1.38428
196.0000	1.19985
195.0000	1.10796
194.0000	1.06916
193.0000	1.05592
192.0000	1.03927
191.0000	1.02221
190.0000	1.01184
